t (s),V (mV)
0,13.706
1.051,13.694
2.079,13.6767
3.08,13.6625
4.079,13.6485
5.079,13.6363
6.08,13.6227
7.079,13.6102
8.08,13.5975
9.079,13.5857
10.079,13.573
11.079,13.5604
12.079,13.5493
13.08,13.5377
14.08,13.5261
15.079,13.5148
16.08,13.5053
17.079,13.4937
18.079,13.4825
19.079,13.471
20.079,13.46
21.079,13.4501
22.08,13.4396
23.079,13.4266
24.08,13.4171
25.079,13.405
26.08,13.395
27.08,13.3839
28.079,13.372
29.079,13.3617
30.08,13.3517
31.08,13.3399
32.079,13.3285
33.08,13.3179
34.079,13.3072
35.08,13.2967
36.079,13.2861
37.08,13.2754
38.079,13.2649
39.079,13.2532
40.079,13.2439
41.079,13.2327
42.079,13.222
43.08,13.2105
44.079,13.2003
45.079,13.1898
46.079,13.1785
47.079,13.1672
48.079,13.1569
49.079,13.1462
50.08,13.1358
51.08,13.1261
52.079,13.1146
53.079,13.1036
54.08,13.0945
55.079,13.0839
56.079,13.0733
57.079,13.0633
58.079,13.0532
59.079,13.0426
60.08,13.0318
61.079,13.0219
62.08,13.0113
63.08,13.0012
64.08,12.9901
65.079,12.981
66.08,12.9697
67.079,12.9583
68.079,12.9489
69.08,12.9386
70.079,12.9275
71.079,12.9174
72.079,12.9065
73.079,12.8972
74.08,12.8874
75.079,12.8767
76.079,12.8665
77.08,12.8567
78.08,12.8463
79.08,12.8363
80.08,12.8263
81.079,12.8158
82.08,12.8058
83.08,12.796
84.079,12.7853
85.079,12.7755
86.079,12.7655
87.08,12.7568
88.079,12.7467
89.079,12.7373
90.079,12.7266
91.08,12.717
92.08,12.7071
93.079,12.6971
94.08,12.6874
95.079,12.6782
96.079,12.6685
97.079,12.6591
98.08,12.6493
99.08,12.6392
100.079,12.6305
101.08,12.6205
102.079,12.6114
103.08,12.6009
104.079,12.5918
105.079,12.5816
106.079,12.5728
107.08,12.5623
108.08,12.5536
109.079,12.5432
110.079,12.5334
111.08,12.523
112.079,12.5132
113.079,12.5042
114.08,12.4947
115.079,12.4839
116.079,12.4739
117.079,12.4638
118.08,12.4538
119.08,12.445
120.079,12.4348
121.079,12.4259
122.079,12.416
123.08,12.4069
124.079,12.3963
125.079,12.3869
126.079,12.3773
127.08,12.368
128.079,12.3588
129.079,12.3496
130.08,12.3392
131.079,12.33
132.079,12.3207
133.079,12.3108
134.079,12.3025
135.08,12.2923
136.079,12.2831
137.079,12.273
138.079,12.2643
139.079,12.254
140.079,12.2449
141.08,12.2365
142.079,12.2258
143.08,12.2164
144.079,12.2076
145.08,12.1979
146.079,12.1895
147.08,12.1804
148.08,12.1709
149.079,12.1628
150.079,12.1533
151.079,12.1443
152.08,12.1356
153.079,12.1264
154.079,12.1168
155.08,12.108
156.08,12.0996
157.08,12.0894
158.079,12.0813
159.079,12.0717
160.079,12.0636
161.08,12.0538
162.08,12.0453
163.079,12.0369
164.079,12.0281
165.08,12.0187
166.079,12.0103
167.079,12.0019
168.079,11.9946
169.079,11.9842
170.079,11.9751
171.079,11.9668
172.08,11.9576
173.08,11.9496
174.079,11.94
175.079,11.931
176.079,11.9215
177.079,11.9117
178.079,11.9035
179.079,11.8952
180.079,11.885
181.079,11.8763
182.08,11.8679
183.08,11.8584
184.079,11.8494
185.079,11.8403
186.079,11.831
187.079,11.8219
188.08,11.813
189.079,11.8043
190.08,11.7958
191.08,11.7865
192.079,11.7778
193.079,11.7684
194.079,11.7603
195.079,11.7518
196.079,11.7418
197.079,11.7332
198.079,11.725
199.08,11.7166
200.08,11.7069
201.079,11.6979
202.08,11.6901
203.079,11.6802
204.079,11.6717
205.079,11.6625
206.079,11.6544
207.079,11.6459
208.08,11.6372
209.079,11.629
210.079,11.621
211.079,11.612
212.079,11.6039
213.079,11.5951
214.08,11.587
215.08,11.578
216.079,11.5698
217.079,11.5617
218.08,11.5529
219.079,11.5447
220.079,11.5362
221.079,11.527
222.079,11.5184
223.08,11.51
224.08,11.5019
225.079,11.4936
226.08,11.4858
227.079,11.4769
228.079,11.4682
229.079,11.4605
230.079,11.452
231.08,11.4435
232.079,11.4353
233.079,11.4272
234.08,11.4186
235.079,11.411
236.079,11.4031
237.079,11.3937
238.08,11.3858
239.079,11.377
240.08,11.3687
241.08,11.3605
242.079,11.3529
243.08,11.3442
244.08,11.3359
245.079,11.3287
246.079,11.3199
247.079,11.311
248.08,11.3034
249.079,11.2962
250.079,11.288
251.079,11.28
252.08,11.272
253.08,11.2634
254.079,11.2559
255.08,11.2481
256.08,11.2398
257.079,11.2326
258.079,11.2244
259.079,11.2162
260.079,11.2084
261.079,11.2007
262.08,11.1925
263.079,11.1849
264.08,11.1766
265.079,11.1684
266.079,11.1599
267.08,11.1526
268.079,11.1446
269.08,11.1368
270.08,11.1279
271.079,11.1205
272.079,11.1119
273.079,11.1039
274.079,11.0964
275.08,11.0879
276.08,11.0796
277.079,11.0713
278.08,11.064
279.079,11.056
280.079,11.0474
281.079,11.0393
282.079,11.0315
283.08,11.0242
284.079,11.0149
285.08,11.0073
286.079,10.9988
287.079,10.9909
288.08,10.9828
289.08,10.975
290.08,10.9665
291.079,10.9581
292.079,10.9497
293.08,10.9419
294.08,10.9344
295.079,10.9261
296.079,10.9181
297.08,10.9112
298.08,10.9024
299.079,10.8952
300.079,10.8869
301.079,10.8796
302.079,10.8724
303.079,10.8645
304.079,10.8566
305.079,10.8483
306.08,10.8412
307.08,10.8342
308.08,10.8258
309.079,10.8177
310.079,10.8112
311.079,10.8038
312.08,10.7956
313.079,10.7885
314.079,10.7808
315.079,10.7738
316.08,10.7652
317.08,10.7574
318.08,10.7492
319.08,10.7423
320.08,10.735
321.08,10.728
322.08,10.7195
323.079,10.7115
324.079,10.7042
325.079,10.6968
326.08,10.6891
327.08,10.6813
328.079,10.6733
329.08,10.6666
330.08,10.6591
331.08,10.6514
332.08,10.6439
333.079,10.6366
334.079,10.6292
335.079,10.6216
336.079,10.6146
337.079,10.6074
338.079,10.6008
339.078,10.5932
340.078,10.5854
341.078,10.5782
342.079,10.5708
343.078,10.5631
344.078,10.5563
345.078,10.549
346.079,10.5417
347.079,10.5339
348.079,10.5269
349.078,10.5196
350.078,10.5118
351.079,10.5043
352.079,10.4972
353.078,10.4903
354.078,10.4822
355.079,10.475
356.079,10.4679
357.079,10.4601
358.078,10.4524
359.078,10.4447
360.078,10.4387
361.078,10.4305
362.078,10.424
363.079,10.4162
364.079,10.4091
365.078,10.4023
366.078,10.3938
367.078,10.3874
368.079,10.3798
369.079,10.3721
370.079,10.3653
371.079,10.3578
372.079,10.3501
373.079,10.3424
374.079,10.3349
375.078,10.3271
376.079,10.3207
377.078,10.3132
378.078,10.3059
379.079,10.2993
380.078,10.292
381.078,10.2845
382.078,10.2774
383.078,10.2708
384.078,10.2629
385.078,10.2558
386.078,10.2488
387.078,10.2414
388.078,10.2348
389.079,10.2268
390.078,10.2205
391.078,10.2131
392.079,10.2065
393.078,10.1985
394.078,10.1925
395.078,10.1848
396.078,10.177
397.078,10.1705
398.079,10.1633
399.078,10.156
400.078,10.1476
401.078,10.1418
402.079,10.1353
403.078,10.1275
404.078,10.1204
405.079,10.1146
406.078,10.1061
407.079,10.1001
408.078,10.0921
409.078,10.0848
410.079,10.0784
411.078,10.0718
412.078,10.064
413.078,10.0574
414.079,10.051
415.079,10.0445
416.079,10.0368
417.078,10.0311
418.078,10.0241
419.078,10.0174
420.079,10.0098
421.079,10.0026
422.08,9.9961
423.079,9.9895
424.079,9.9819
425.08,9.9745
426.08,9.9672
427.08,9.9595
428.08,9.9523
429.08,9.9459
430.079,9.9383
431.08,9.9315
432.079,9.9247
433.08,9.9178
434.079,9.9114
435.08,9.9042
436.079,9.8971
437.08,9.8894
438.079,9.8821
439.079,9.8757
440.079,9.8683
441.08,9.8621
442.079,9.8553
443.08,9.8493
444.08,9.8423
445.079,9.8357
446.08,9.8298
447.079,9.8231
448.08,9.817
449.08,9.8103
450.079,9.8037
451.079,9.7963
452.079,9.7907
453.079,9.7841
454.079,9.7776
455.08,9.7714
456.079,9.7648
457.08,9.7584
458.08,9.7524
459.079,9.7456
460.08,9.739
461.079,9.7317
462.08,9.7245
463.08,9.7175
464.079,9.7109
465.079,9.7045
466.08,9.6967
467.079,9.6907
468.079,9.6834
469.079,9.6762
470.08,9.6694
471.079,9.6636
472.08,9.6557
473.08,9.6496
474.079,9.6423
475.08,9.6353
476.079,9.6294
477.079,9.6224
478.08,9.6156
479.079,9.6088
480.08,9.6032
481.079,9.5962
482.079,9.5899
483.08,9.5831
484.079,9.577
485.08,9.5714
486.079,9.5639
487.08,9.5588
488.079,9.5518
489.079,9.5448
490.08,9.5397
491.079,9.5318
492.08,9.5261
493.079,9.5203
494.08,9.5139
495.08,9.5075
496.079,9.501
497.08,9.4951
498.079,9.4879
499.08,9.4822
500.079,9.476
501.079,9.4695
502.08,9.4635
503.08,9.4582
504.079,9.4512
505.079,9.4451
506.079,9.4385
507.08,9.4331
508.08,9.4265
509.08,9.4199
510.08,9.4132
511.08,9.4076
512.079,9.4006
513.079,9.3947
514.08,9.3876
515.08,9.3818
516.079,9.3748
517.079,9.3686
518.08,9.3619
519.08,9.3556
520.079,9.3486
521.079,9.343
522.079,9.3365
523.08,9.3297
524.08,9.3235
525.079,9.3183
526.079,9.3118
527.08,9.3056
528.08,9.2985
529.08,9.293
530.08,9.2867
531.08,9.2816
532.08,9.2749
533.079,9.2683
534.079,9.2626
535.08,9.2557
536.08,9.2495
537.079,9.2435
538.079,9.2377
539.08,9.2321
540.08,9.2255
541.08,9.2202
542.08,9.2144
543.079,9.208
544.079,9.2021
545.08,9.1953
546.08,9.1904
547.079,9.183
548.079,9.1771
549.08,9.1709
550.08,9.1645
551.079,9.1584
552.079,9.1519
553.08,9.145
554.08,9.1388
555.08,9.1323
556.079,9.1261
557.079,9.1204
558.08,9.114
559.08,9.1083
560.079,9.1022
561.079,9.0958
562.079,9.0898
563.079,9.0843
564.08,9.0775
565.08,9.0718
566.079,9.0661
567.079,9.0608
568.08,9.0532
569.08,9.0479
570.079,9.042
571.079,9.0356
572.079,9.0304
573.079,9.0242
574.079,9.0185
575.08,9.0136
576.08,9.0062
577.079,9.0023
